# %ECSV 0.9
# ---
# datatype:
# - {name: wavelength, unit: Angstrom, datatype: float64}
# - {name: response, datatype: float64}
# meta: !!omap
# - {url: 'http://dx.doi.org/10.1088/0004-6256/139/4/1628'}
# - {band_name: z}
# - {airmass: 1.3}
# - {description: 'SDSS 2.5m telescope reference z-band response function at adopted
#     1.3 airmass APO atmospheric transmission.
# 
#     Values are the product of the z and atmospheric transmission columns from Table
#     4 of:
# 
#     Doi et al, "Photometric Response Functions of the SDSS Imager",
# 
#     The Astronomical Journal, Volume 139, Issue 4, pp. 1628-1648 (2010).
# 
#     All response values outside the wavelength range covered here are zero.'}
# - {group_name: sdss2010}
wavelength response
7700.0 0.0
7720.0 0.0001
7780.0 0.0001
7800.0 0.0002
7840.0 0.0002
7860.0 0.0003
7880.0 0.0004
7900.0 0.0006
7920.0 0.0008
7940.0 0.001
7960.0 0.0012
7980.0 0.0016
8000.0 0.0023
8020.0 0.003
8040.0 0.0044
8060.0 0.0059
8080.0 0.0078
8100.0 0.0105
8120.0 0.0132
8140.0 0.0171
8160.0 0.0212
8180.0 0.0257
8200.0 0.0309
8220.0 0.0362
8240.0 0.0415
8260.0 0.0467
8280.0 0.0519
8300.0 0.057
8320.0 0.0621
8340.0 0.0664
8360.0 0.0705
8380.0 0.0742
8400.0 0.0773
8420.0 0.0803
8440.0 0.0824
8460.0 0.0845
8480.0 0.0861
8500.0 0.0871
8520.0 0.0882
8540.0 0.0893
8560.0 0.0904
8580.0 0.0911
8600.0 0.0912
8620.0 0.0913
8640.0 0.0915
8660.0 0.0917
8680.0 0.0914
8700.0 0.0906
8720.0 0.0898
8740.0 0.0889
8760.0 0.0881
8780.0 0.0869
8800.0 0.0854
8820.0 0.0838
8840.0 0.0822
8860.0 0.0806
8880.0 0.079
8900.0 0.0772
8920.0 0.0755
8940.0 0.0738
8960.0 0.072
8980.0 0.0704
9000.0 0.0688
9020.0 0.0672
9040.0 0.0656
9060.0 0.064
9080.0 0.0625
9100.0 0.0612
9120.0 0.0598
9140.0 0.0585
9160.0 0.0571
9180.0 0.0559
9200.0 0.0547
9220.0 0.0535
9240.0 0.0523
9260.0 0.0511
9280.0 0.0499
9300.0 0.0487
9320.0 0.0475
9340.0 0.0463
9360.0 0.0451
9380.0 0.044
9400.0 0.043
9420.0 0.042
9440.0 0.041
9460.0 0.04
9480.0 0.039
9500.0 0.0379
9520.0 0.0369
9540.0 0.0358
9560.0 0.0347
9580.0 0.0337
9600.0 0.0327
9620.0 0.0317
9640.0 0.0307
9660.0 0.0297
9680.0 0.0287
9700.0 0.0276
9720.0 0.0266
9740.0 0.0256
9760.0 0.0245
9780.0 0.0235
9800.0 0.0226
9820.0 0.0216
9840.0 0.0206
9860.0 0.0196
9880.0 0.0186
9900.0 0.0176
9920.0 0.0166
9940.0 0.0156
9960.0 0.0147
9980.0 0.0138
10000.0 0.0132
10020.0 0.0125
10040.0 0.0119
10060.0 0.0113
10080.0 0.0106
10100.0 0.0099
10120.0 0.0093
10140.0 0.0086
10160.0 0.008
10180.0 0.0074
10200.0 0.007
10220.0 0.0065
10240.0 0.0061
10260.0 0.0056
10280.0 0.0052
10300.0 0.0047
10320.0 0.0042
10340.0 0.0038
10360.0 0.0033
10380.0 0.003
10400.0 0.0029
10420.0 0.0027
10440.0 0.0026
10460.0 0.0024
10480.0 0.0022
10500.0 0.0021
10520.0 0.0019
10540.0 0.0018
10560.0 0.0016
10580.0 0.0015
10600.0 0.0014
10620.0 0.0013
10640.0 0.0012
10660.0 0.0012
10680.0 0.0011
10700.0 0.001
10720.0 0.0009
10740.0 0.0008
10760.0 0.0007
10800.0 0.0007
10820.0 0.0006
10860.0 0.0006
10880.0 0.0005
10920.0 0.0005
10940.0 0.0004
10980.0 0.0004
11000.0 0.0003
11020.0 0.0003
11040.0 0.0002
11080.0 0.0002
11100.0 0.0001
11140.0 0.0001
11160.0 0.0
